# Wavelength(nm) n k
188 0.9179 0.6589
192 0.9276 0.6842
195 0.9205 0.7105
199 0.9067 0.7412
203 0.8971 0.7791
207 0.8933 0.8188
212 0.9012 0.8613
216 0.9052 0.8971
221 0.9197 0.9408
226 0.9415 0.9797
231 0.9702 1.0136
237 1.0104 1.0489
243 1.0515 1.0780
249 1.0943 1.0956
255 1.1432 1.1081
262 1.1831 1.1023
269 1.2220 1.1019
276 1.2513 1.0891
284 1.2642 1.0742
292 1.2663 1.0580
301 1.2624 1.0465
311 1.2570 1.0458
320 1.2130 1.0453
332 1.1618 1.0548
342 1.1258 1.0720
354 1.0990 1.1019
368 1.0706 1.1433
381 1.0758 1.1895
397 1.0694 1.2400
413 1.0501 1.3064
431 1.0478 1.3807
451 1.0518 1.4557
471 1.0729 1.5379
496 1.0882 1.6307
521 1.0981 1.7286
549 1.1307 1.8391
582 1.1470 1.9481
617 1.1574 2.0736
659 1.1511 2.2094
704 1.1851 2.3466
756 1.2199 2.4777
821 1.2886 2.6150
892 1.3628 2.7632
984 1.4029 2.9434
1088 1.4929 3.1578
1216 1.5655 3.4379
1393 1.6542 3.8007
1610 1.7478 4.2902
1937 1.9244 4.9173
